Wavelength(nm),Intensities
631.7000050536,1542.0
631.7041717202667,1564.0
631.7083383869333,1568.0
631.7125050536,1538.0
631.7166717202666,1526.0
631.7208383869333,1580.0
631.7250050536,1584.0
631.7291717202667,1552.0
631.7333383869333,1576.0
631.7375050536,1562.0
631.7416717202666,1560.0
631.7458383869333,1584.0
631.7500050535999,1588.0
631.7541717202666,1584.0
631.7583383869332,1568.0
631.7625050536,1590.0
631.7666717202667,1564.0
631.7708383869333,1586.0
631.7750050536,1614.0
631.7791717202666,1550.0
631.7833383869333,1636.0
631.7875050536,1606.0
631.7916717202667,1652.0
631.7958383869333,1694.0
631.8000050536,1718.0
631.8041717202666,1766.0
631.8083383869333,1720.0
631.8125050535999,1776.0
631.8166717202666,1788.0
631.8208383869332,1928.0
631.8250050536,2046.0
631.8291717202667,2218.0
631.8333383869333,2420.0
631.8375050536,2764.0
631.8416717202666,3134.0
631.8458383869333,3650.0
631.8500050536,4182.0
631.8541717202667,5020.0
631.8583383869333,5740.0
631.8625050536,7326.0
631.8666717202666,8948.0
631.8708383869333,10036.0
631.8750050535999,10988.0
631.8791717202666,12178.0
631.8833383869332,13198.0
631.8875050536,14272.0
631.8916717202667,15204.0
631.8958383869333,16208.0
631.9000050536,17220.0
631.9041717202666,17984.0
631.9083383869333,18736.0
631.9125050536,19720.0
631.9166717202667,20706.0
631.9208383869333,21754.0
631.9250050536,22540.0
631.9291717202666,23582.0
631.9333383869333,24608.0
631.9375050535999,25656.0
631.9416717202666,26932.0
631.9458383869332,28232.0
631.9500050536,29298.0
631.9541717202667,30112.0
631.9583383869333,30540.0
631.9625050536,30776.0
631.9666717202666,30832.0
631.9708383869333,30516.0
631.9750050536,30048.0
631.9791717202667,29564.0
631.9833383869333,28832.0
631.9875050536,27698.0
631.9916717202666,26950.0
631.9958383869333,25490.0
632.0000050535999,24216.0
632.0041717202666,23002.0
632.0083383869332,21762.0
632.0125050536,20500.0
632.0166717202667,19394.0
632.0208383869333,18256.0
632.0250050536,17298.0
632.0291717202666,16478.0
632.0333383869333,15532.0
632.0375050536,14506.0
632.0416717202667,13838.0
632.0458383869333,12992.0
632.0500050536,12210.0
632.0541717202666,11454.0
632.0583383869333,10860.0
632.0625050535999,9796.0
632.0666717202666,8696.0
632.0708383869332,7678.0
632.0750050536,6578.0
632.0791717202667,5330.0
632.0833383869333,4406.0
632.0875050536,3608.0
632.0916717202666,2988.0
632.0958383869333,2636.0
632.1000050536,2358.0
632.1041717202667,2142.0
632.1083383869333,1964.0
632.1125050536,1854.0
632.1166717202666,1800.0
632.1208383869333,1712.0
632.1250050535999,1670.0
632.1291717202666,1630.0
632.1333383869332,1634.0
632.1375050536,1556.0
632.1416717202667,1570.0
632.1458383869333,1536.0
632.1500050536,1516.0
632.1541717202666,1528.0
632.1583383869333,1498.0
632.1625050536,1500.0
632.1666717202667,1540.0
632.1708383869333,1536.0
632.1750050536,1552.0
632.1791717202666,1554.0
632.1833383869333,1542.0
632.1875050535999,1522.0
632.1916717202666,1506.0
632.1958383869332,1528.0
632.2000050536,1546.0
632.2041717202667,1552.0
632.2083383869333,1466.0
632.2125050536,1506.0
632.2166717202666,1526.0
632.2208383869333,1546.0
632.2250050536,1498.0
632.2291717202667,1532.0
632.2333383869333,1496.0
632.2375050536,1546.0
632.2416717202666,1520.0
632.2458383869333,1596.0
632.2500050535999,1548.0
632.2541717202666,1544.0
632.2583383869332,1562.0
632.2625050536,1474.0
632.2666717202667,1554.0
632.2708383869333,1524.0
632.2750050536,1552.0
632.2791717202666,1536.0
632.2833383869333,1512.0
632.2875050536,1514.0
632.2916717202667,1536.0
632.2958383869333,1550.0
