Wavelength(nm),Intensities
632.000005056,420.0
632.0041717226667,424.0
632.0083383893333,416.0
632.012505056,418.0
632.0166717226666,418.0
632.0208383893333,410.0
632.0250050559999,424.0
632.0291717226667,420.0
632.0333383893333,424.0
632.037505056,416.0
632.0416717226666,420.0
632.0458383893333,418.0
632.0500050559999,422.0
632.0541717226666,414.0
632.0583383893332,418.0
632.062505056,422.0
632.0666717226667,422.0
632.0708383893333,428.0
632.075005056,424.0
632.0791717226666,422.0
632.0833383893333,420.0
632.0875050559999,422.0
632.0916717226667,416.0
632.0958383893333,418.0
632.100005056,418.0
632.1041717226666,420.0
632.1083383893333,414.0
632.1125050559999,420.0
632.1166717226666,418.0
632.1208383893332,418.0
632.125005056,420.0
632.1291717226667,422.0
632.1333383893333,426.0
632.137505056,418.0
632.1416717226666,418.0
632.1458383893333,416.0
632.1500050559999,422.0
632.1541717226667,424.0
632.1583383893333,424.0
632.162505056,410.0
632.1666717226666,418.0
632.1708383893333,414.0
632.1750050559999,418.0
632.1791717226666,420.0
632.1833383893332,428.0
632.187505056,432.0
632.1916717226667,430.0
632.1958383893333,444.0
632.200005056,448.0
632.2041717226666,466.0
632.2083383893333,482.0
632.2125050559999,498.0
632.2166717226667,512.0
632.2208383893333,524.0
632.225005056,538.0
632.2291717226666,548.0
632.2333383893333,572.0
632.2375050559999,574.0
632.2416717226666,594.0
632.2458383893332,626.0
632.250005056,648.0
632.2541717226667,660.0
632.2583383893333,686.0
632.262505056,710.0
632.2666717226666,730.0
632.2708383893333,762.0
632.2750050559999,786.0
632.2791717226667,808.0
632.2833383893333,816.0
632.287505056,842.0
632.2916717226666,854.0
632.2958383893333,866.0
632.3000050559999,878.0
632.3041717226666,888.0
632.3083383893332,898.0
632.312505056,914.0
632.3166717226667,918.0
632.3208383893333,926.0
632.325005056,926.0
632.3291717226666,914.0
632.3333383893333,902.0
632.3375050559999,892.0
632.3416717226667,872.0
632.3458383893333,856.0
632.350005056,828.0
632.3541717226666,806.0
632.3583383893333,804.0
632.3625050559999,772.0
632.3666717226666,768.0
632.3708383893332,748.0
632.375005056,722.0
632.3791717226667,718.0
632.3833383893333,688.0
632.387505056,680.0
632.3916717226666,650.0
632.3958383893333,630.0
632.4000050559999,600.0
632.4041717226667,584.0
632.4083383893333,562.0
632.412505056,538.0
632.4166717226666,528.0
632.4208383893333,504.0
632.4250050559999,486.0
632.4291717226666,474.0
632.4333383893332,468.0
632.437505056,454.0
632.4416717226667,444.0
632.4458383893333,430.0
632.450005056,426.0
632.4541717226666,432.0
632.4583383893333,422.0
632.4625050559999,418.0
632.4666717226667,422.0
632.4708383893333,420.0
632.475005056,414.0
632.4791717226666,422.0
632.4833383893333,414.0
632.4875050559999,418.0
632.4916717226666,412.0
632.4958383893332,422.0
