Wavelength(nm),Intensities
632.000005056,1450.0
632.0041717226667,1456.0
632.0083383893333,1458.0
632.012505056,1434.0
632.0166717226666,1496.0
632.0208383893333,1444.0
632.0250050559999,1394.0
632.0291717226667,1436.0
632.0333383893333,1454.0
632.037505056,1462.0
632.0416717226666,1394.0
632.0458383893333,1392.0
632.0500050559999,1460.0
632.0541717226666,1444.0
632.0583383893332,1468.0
632.062505056,1422.0
632.0666717226667,1448.0
632.0708383893333,1402.0
632.075005056,1448.0
632.0791717226666,1434.0
632.0833383893333,1440.0
632.0875050559999,1468.0
632.0916717226667,1440.0
632.0958383893333,1450.0
632.100005056,1526.0
632.1041717226666,1408.0
632.1083383893333,1454.0
632.1125050559999,1534.0
632.1166717226666,1512.0
632.1208383893332,1480.0
632.125005056,1478.0
632.1291717226667,1540.0
632.1333383893333,1542.0
632.137505056,1522.0
632.1416717226666,1606.0
632.1458383893333,1728.0
632.1500050559999,1898.0
632.1541717226667,2356.0
632.1583383893333,3262.0
632.162505056,4478.0
632.1666717226666,6070.0
632.1708383893333,7990.0
632.1750050559999,11264.0
632.1791717226666,14908.0
632.1833383893332,19660.0
632.187505056,23128.0
632.1916717226667,29868.0
632.1958383893333,35704.0
632.200005056,40204.0
632.2041717226666,44234.0
632.2083383893333,48734.0
632.2125050559999,52250.0
632.2166717226667,54822.0
632.2208383893333,56890.0
632.225005056,58874.0
632.2291717226666,60396.0
632.2333383893333,62052.0
632.2375050559999,62964.0
632.2416717226666,63996.0
632.2458383893332,65148.0
632.250005056,65974.0
632.2541717226667,66438.0
632.2583383893333,65028.0
632.262505056,61116.0
632.2666717226666,58020.0
632.2708383893333,53428.0
632.2750050559999,46808.0
632.2791717226667,41590.0
632.2833383893333,37574.0
632.287505056,34444.0
632.2916717226666,31244.0
632.2958383893333,28378.0
632.3000050559999,25954.0
632.3041717226666,23316.0
632.3083383893332,20952.0
632.312505056,18676.0
632.3166717226667,16600.0
632.3208383893333,15098.0
632.325005056,12718.0
632.3291717226666,10638.0
632.3333383893333,9410.0
632.3375050559999,8048.0
632.3416717226667,7212.0
632.3458383893333,6516.0
632.350005056,5818.0
632.3541717226666,5226.0
632.3583383893333,4686.0
632.3625050559999,4198.0
632.3666717226666,3992.0
632.3708383893332,3548.0
632.375005056,3184.0
632.3791717226667,3004.0
632.3833383893333,2736.0
632.387505056,2500.0
632.3916717226666,2206.0
632.3958383893333,1946.0
632.4000050559999,1790.0
632.4041717226667,1632.0
632.4083383893333,1496.0
632.412505056,1456.0
632.4166717226666,1438.0
632.4208383893333,1394.0
632.4250050559999,1462.0
632.4291717226666,1376.0
632.4333383893332,1402.0
632.437505056,1422.0
632.4416717226667,1418.0
632.4458383893333,1434.0
632.450005056,1422.0
632.4541717226666,1360.0
632.4583383893333,1398.0
632.4625050559999,1366.0
632.4666717226667,1402.0
632.4708383893333,1378.0
632.475005056,1390.0
632.4791717226666,1432.0
632.4833383893333,1370.0
632.4875050559999,1442.0
632.4916717226666,1442.0
632.4958383893332,1450.0
