Wavelength(nm),Intensities
631.8000050544,126.0
631.8041717210667,116.0
631.8083383877333,114.0
631.8125050544,124.0
631.8166717210667,128.0
631.8208383877334,108.0
631.8250050544,112.0
631.8291717210667,112.0
631.8333383877333,120.0
631.8375050544,118.0
631.8416717210666,124.0
631.8458383877334,114.0
631.8500050544,128.0
631.8541717210667,108.0
631.8583383877333,128.0
631.8625050544,134.0
631.8666717210667,124.0
631.8708383877333,130.0
631.8750050544,126.0
631.8791717210667,118.0
631.8833383877334,118.0
631.8875050544,132.0
631.8916717210667,128.0
631.8958383877333,140.0
631.9000050544,146.0
631.9041717210666,150.0
631.9083383877334,160.0
631.9125050544,174.0
631.9166717210667,172.0
631.9208383877333,172.0
631.9250050544,180.0
631.9291717210667,186.0
631.9333383877333,214.0
631.9375050544,224.0
631.9416717210667,240.0
631.9458383877334,266.0
631.9500050544,302.0
631.9541717210667,330.0
631.9583383877333,354.0
631.9625050544,386.0
631.9666717210666,394.0
631.9708383877334,418.0
631.9750050544,446.0
631.9791717210667,472.0
631.9833383877333,510.0
631.9875050544,530.0
631.9916717210667,552.0
631.9958383877333,616.0
632.0000050544,668.0
632.0041717210667,710.0
632.0083383877334,760.0
632.0125050544,814.0
632.0166717210667,874.0
632.0208383877333,928.0
632.0250050544,988.0
632.0291717210666,1038.0
632.0333383877334,1124.0
632.0375050544,1174.0
632.0416717210667,1214.0
632.0458383877333,1304.0
632.0500050544,1390.0
632.0541717210667,1504.0
632.0583383877333,1588.0
632.0625050544,1728.0
632.0666717210667,1876.0
632.0708383877334,1996.0
632.0750050544,2124.0
632.0791717210667,2260.0
632.0833383877333,2382.0
632.0875050544,2528.0
632.0916717210666,2626.0
632.0958383877334,2742.0
632.1000050544,2848.0
632.1041717210667,2930.0
632.1083383877333,3028.0
632.1125050544,3122.0
632.1166717210667,3188.0
632.1208383877333,3290.0
632.1250050544,3356.0
632.1291717210667,3490.0
632.1333383877334,3624.0
632.1375050544,3738.0
632.1416717210667,3838.0
632.1458383877333,3930.0
632.1500050544,4040.0
632.1541717210666,4068.0
632.1583383877334,4090.0
632.1625050544,4110.0
632.1666717210667,4120.0
632.1708383877333,4098.0
632.1750050544,4138.0
632.1791717210667,4108.0
632.1833383877333,4108.0
632.1875050544,4094.0
632.1916717210667,4074.0
632.1958383877334,4038.0
632.2000050544,4012.0
632.2041717210667,3970.0
632.2083383877333,3914.0
632.2125050544,3908.0
632.2166717210666,3852.0
632.2208383877334,3838.0
632.2250050544,3764.0
632.2291717210667,3732.0
632.2333383877333,3640.0
632.2375050544,3634.0
632.2416717210667,3562.0
632.2458383877333,3484.0
632.2500050544,3470.0
632.2541717210667,3326.0
632.2583383877334,3288.0
632.2625050544,3132.0
632.2666717210667,2986.0
632.2708383877333,2822.0
632.2750050544,2726.0
632.2791717210666,2578.0
632.2833383877334,2402.0
632.2875050544,2306.0
632.2916717210667,2158.0
632.2958383877333,2040.0
632.3000050544,2004.0
632.3041717210667,1946.0
632.3083383877333,1846.0
632.3125050544,1676.0
632.3166717210667,1604.0
632.3208383877334,1484.0
632.3250050544,1408.0
632.3291717210667,1264.0
632.3333383877333,1134.0
632.3375050544,1034.0
632.3416717210666,976.0
632.3458383877334,894.0
632.3500050544,798.0
632.3541717210667,722.0
632.3583383877333,676.0
632.3625050544,636.0
632.3666717210667,568.0
632.3708383877333,552.0
632.3750050544,520.0
632.3791717210667,458.0
632.3833383877334,376.0
632.3875050544,360.0
632.3916717210667,348.0
632.3958383877333,300.0
632.4000050544,284.0
632.4041717210666,232.0
632.4083383877334,176.0
632.4125050544,168.0
632.4166717210667,138.0
632.4208383877333,126.0
632.4250050544,124.0
632.4291717210667,116.0
632.4333383877333,120.0
632.4375050544,124.0
632.4416717210667,110.0
632.4458383877334,128.0
632.4500050544,124.0
632.4541717210667,112.0
632.4583383877333,114.0
632.4625050544,120.0
632.4666717210666,122.0
632.4708383877334,124.0
632.4750050544,130.0
