Wavelength(nm),Intensities
632.000005056,438.0
632.0041717226667,442.0
632.0083383893333,440.0
632.012505056,440.0
632.0166717226666,444.0
632.0208383893333,438.0
632.0250050559999,438.0
632.0291717226667,442.0
632.0333383893333,446.0
632.037505056,450.0
632.0416717226666,442.0
632.0458383893333,446.0
632.0500050559999,444.0
632.0541717226666,442.0
632.0583383893332,444.0
632.062505056,446.0
632.0666717226667,450.0
632.0708383893333,448.0
632.075005056,452.0
632.0791717226666,446.0
632.0833383893333,440.0
632.0875050559999,448.0
632.0916717226667,448.0
632.0958383893333,448.0
632.100005056,446.0
632.1041717226666,450.0
632.1083383893333,446.0
632.1125050559999,454.0
632.1166717226666,456.0
632.1208383893332,464.0
632.125005056,474.0
632.1291717226667,468.0
632.1333383893333,486.0
632.137505056,498.0
632.1416717226666,526.0
632.1458383893333,600.0
632.1500050559999,666.0
632.1541717226667,738.0
632.1583383893333,790.0
632.162505056,864.0
632.1666717226666,920.0
632.1708383893333,992.0
632.1750050559999,1052.0
632.1791717226666,1120.0
632.1833383893332,1192.0
632.187505056,1272.0
632.1916717226667,1308.0
632.1958383893333,1390.0
632.200005056,1488.0
632.2041717226666,1556.0
632.2083383893333,1648.0
632.2125050559999,1760.0
632.2166717226667,1854.0
632.2208383893333,1936.0
632.225005056,2034.0
632.2291717226666,2106.0
632.2333383893333,2190.0
632.2375050559999,2270.0
632.2416717226666,2346.0
632.2458383893332,2400.0
632.250005056,2446.0
632.2541717226667,2504.0
632.2583383893333,2570.0
632.262505056,2638.0
632.2666717226666,2732.0
632.2708383893333,2780.0
632.2750050559999,2872.0
632.2791717226667,3036.0
632.2833383893333,3150.0
632.287505056,3232.0
632.2916717226666,3278.0
632.2958383893333,3272.0
632.3000050559999,3256.0
632.3041717226666,3236.0
632.3083383893332,3186.0
632.312505056,3118.0
632.3166717226667,3030.0
632.3208383893333,2948.0
632.325005056,2878.0
632.3291717226666,2750.0
632.3333383893333,2640.0
632.3375050559999,2548.0
632.3416717226667,2456.0
632.3458383893333,2328.0
632.350005056,2226.0
632.3541717226666,2100.0
632.3583383893333,1992.0
632.3625050559999,1902.0
632.3666717226666,1790.0
632.3708383893332,1704.0
632.375005056,1620.0
632.3791717226667,1450.0
632.3833383893333,1276.0
632.387505056,1090.0
632.3916717226666,962.0
632.3958383893333,774.0
632.4000050559999,642.0
632.4041717226667,560.0
632.4083383893333,496.0
632.412505056,460.0
632.4166717226666,458.0
632.4208383893333,454.0
632.4250050559999,448.0
632.4291717226666,448.0
632.4333383893332,444.0
632.437505056,450.0
632.4416717226667,442.0
632.4458383893333,448.0
632.450005056,448.0
632.4541717226666,452.0
632.4583383893333,452.0
632.4625050559999,442.0
632.4666717226667,448.0
632.4708383893333,448.0
632.475005056,450.0
632.4791717226666,450.0
632.4833383893333,452.0
632.4875050559999,438.0
632.4916717226666,444.0
632.4958383893332,448.0
