Wavelength(nm),Intensities
631.9208383887,2121.2
631.9250050553667,2130.8
631.9291717220333,2156.4
631.9333383887,2322.0
631.9375050553666,2577.2
631.9416717220333,3224.0
631.9458383886999,4180.4
631.9500050553667,5448.8
631.9541717220333,6316.4
631.9583383887,6556.4
631.9625050553666,6721.6
631.9666717220333,6814.0
631.9708383886999,6938.8
631.9750050553666,7158.8
631.9791717220332,7333.2
631.9833383887,7782.0
631.9875050553667,8265.2
631.9916717220333,9483.2
631.9958383887,10877.2
632.0000050553666,11966.0
632.0041717220333,12765.2
632.0083383886999,13239.2
632.0125050553667,14073.2
632.0166717220333,14831.6
632.0208383887,15549.2
632.0250050553666,16350.4
632.0291717220333,17247.6
632.0333383886999,17760.4
632.0375050553666,18552.0
632.0416717220332,19524.0
632.0458383887,20802.4
632.0500050553667,22051.2
632.0541717220333,22855.6
632.0583383887,25220.8
632.0625050553666,27157.6
632.0666717220333,28045.2
632.0708383886999,28892.8
632.0750050553667,29880.8
632.0791717220333,29993.2
632.0833383887,30954.8
632.0875050553666,31780.4
632.0916717220333,32564.4
632.0958383886999,33311.6
632.1000050553666,34282.8
632.1041717220332,35125.2
632.1083383887,36223.6
632.1125050553667,37371.6
632.1166717220333,38798.8
632.1208383887,39893.2
632.1250050553666,40087.2
632.1291717220333,42179.2
632.1333383886999,43918.8
632.1375050553667,45818.8
632.1416717220333,48126.4
632.1458383887,49368.4
632.1500050553666,50698.0
632.1541717220333,52684.8
632.1583383886999,54312.8
632.1625050553666,55597.6
632.1666717220332,56768.4
632.1708383887,57846.4
632.1750050553667,59233.2
632.1791717220333,60731.6
632.1833383887,62276.4
632.1875050553666,63306.0
632.1916717220333,64422.8
632.1958383886999,65290.4
632.2000050553667,65881.6
632.2041717220333,66165.2
632.2083383887,66205.6
632.2125050553666,65800.4
632.2166717220333,65858.0
632.2208383886999,65408.0
632.2250050553666,64896.0
632.2291717220332,64100.8
632.2333383887,63704.8
632.2375050553667,62510.8
632.2416717220333,61770.8
632.2458383887,59965.6
632.2500050553666,59236.8
632.2541717220333,57519.2
632.2583383886999,55054.4
632.2625050553667,53809.2
632.2666717220333,52018.4
632.2708383887,49349.6
632.2750050553666,48450.0
632.2791717220333,47654.0
632.2833383886999,43768.8
632.2875050553666,44518.4
632.2916717220332,39954.8
632.2958383887,41311.6
632.3000050553667,37599.2
632.3041717220333,39937.6
632.3083383887,34358.0
632.3125050553666,37726.8
632.3166717220333,32202.0
632.3208383886999,35967.2
632.3250050553667,30485.6
632.3291717220333,30354.8
632.3333383887,28748.4
632.3375050553666,26484.0
632.3416717220333,28667.2
632.3458383886999,24130.4
632.3500050553666,25006.4
632.3541717220332,23085.6
632.3583383887,20865.2
632.3625050553667,20818.0
632.3666717220333,17830.4
632.3708383887,15450.8
632.3750050553666,13028.0
632.3791717220333,12769.2
632.3833383886999,11094.4
632.3875050553667,9381.6
632.3916717220333,9705.2
632.3958383887,7662.8
632.4000050553666,6637.6
632.4041717220333,4434.8
632.4083383886999,3830.4
632.4125050553666,2246.8
632.4166717220332,2247.6
